# P(k)  H0=0.71 Om0=0.267804 Ob0=0.0444356 Ol0=0.73 Sigma8=1 n_s=1
# k  P_E+H_wOsc(k)  P_E+H_noOsc(k)  P_this_simul(k) 
       0.001       11484.6       11384.5       11484.6
       0.002       21413.5       21271.3       21413.5
       0.003       29544.9         29442       29544.9
       0.004       36054.4       36047.6       36054.4
       0.005       41181.5       41301.6       41181.5
       0.006       45144.6       45400.9       45144.6
       0.007       48124.9       48507.4       48124.9
       0.008       50269.5       50748.4       50269.5
       0.009       51698.1       52224.5       51698.1
        0.01       52510.1       53021.8       52510.1
       0.011         52791         53222         52791
       0.012       52616.6       52911.3       52616.6
       0.013       52056.6       52182.3       52056.6
       0.014       51176.8       51131.9       51176.8
       0.015       50039.3       49853.7       50039.3
       0.016       48703.1       48431.9       48703.1
       0.017       47222.7       46935.8       47222.7
       0.018       45648.1         45418       45648.1
       0.019       44022.9       43915.6       44022.9
        0.02       42384.6       42452.3       42384.6
       0.021       40763.9       41041.9       40763.9
       0.022       39184.9       39691.1       39184.9
       0.023       37665.9         38402       37665.9
       0.024       36219.7       37173.9       36219.7
       0.025       34854.4       36004.2       34854.4
       0.026       33574.9       34889.8       33574.9
       0.027       32382.7       33827.2       32382.7
       0.028       31277.6       32812.9       31277.6
       0.029       30257.5       31843.6       30257.5
        0.03       29319.3       30916.2       29319.3
       0.031         28459         30028         28459
       0.032       27672.2       29176.3       27672.2
       0.033       26953.9       28358.9       26953.9
       0.034       26298.9       27573.8       26298.9
       0.035       25701.5         26819       25701.5
       0.036       25156.2       26092.8       25156.2
       0.037       24656.8       25393.8       24656.8
       0.038       24197.5       24720.5       24197.5
       0.039         23772       24071.5         23772
        0.04       23374.2       23445.8       23374.2
       0.041       22997.8       22842.3       22997.8
       0.042       22636.9       22259.8       22636.9
       0.043       22285.7       21697.4       22285.7
       0.044       21938.7       21154.3       21938.7
       0.045       21590.9       20629.5       21590.9
       0.046       21237.9       20122.4       21237.9
       0.047       20875.9       19632.1       20875.9
       0.048       20501.8         19158       20501.8
       0.049       20113.4       18699.3       20113.4
        0.05       19709.3       18255.5       19709.3
       0.051       19288.8         17826       19288.8
       0.052       18852.2       17410.1       18852.2
       0.053       18400.6       17007.4       18400.6
       0.054       17935.7       16617.4       17935.7
       0.055       17459.9       16239.4       17459.9
       0.056         16976       15873.2         16976
       0.057       16487.4       15518.1       16487.4
       0.058       15997.6       15173.9       15997.6
       0.059       15510.1         14840       15510.1
        0.06       15028.7       14516.2       15028.7
       0.061         14557       14201.9         14557
       0.062       14098.2         13897       14098.2
       0.063       13655.3         13601       13655.3
       0.064         13231       13313.6         13231
       0.065       12827.5       13034.5       12827.5
       0.066       12446.6       12763.4       12446.6
       0.067       12089.5         12500       12089.5
       0.068       11757.2       12244.1       11757.2
       0.069       11449.8       11995.4       11449.8
        0.07       11167.4       11753.6       11167.4
       0.071       10909.5       11518.4       10909.5
       0.072       10675.3       11289.8       10675.3
       0.073       10463.4       11067.3       10463.4
       0.074       10272.4       10850.9       10272.4
       0.075       10100.7       10640.4       10100.7
       0.076       9946.14       10435.4       9946.14
       0.077       9806.78       10235.9       9806.78
       0.078       9680.37       10041.6       9680.37
       0.079       9564.64       9852.45       9564.64
        0.08        9457.3       9668.19        9457.3
       0.081        9356.1       9488.69        9356.1
       0.082       9258.85       9313.78       9258.85
       0.083       9163.49       9143.33       9163.49
       0.084        9068.1       8977.19        9068.1
       0.085       8970.98       8815.22       8970.98
       0.086       8870.64        8657.3       8870.64
       0.087       8765.84       8503.29       8765.84
       0.088       8655.61       8353.07       8655.61
       0.089       8539.27       8206.53       8539.27
        0.09       8416.41       8063.55       8416.41
       0.091       8286.93       7924.02       8286.93
       0.092       8150.97       7787.84       8150.97
       0.093       8008.92        7654.9       8008.92
       0.094       7861.39       7525.11       7861.39
       0.095       7709.19       7398.38       7709.19
       0.096       7553.28       7274.61       7553.28
       0.097       7394.72       7153.71       7394.72
       0.098       7234.67       7035.61       7234.67
       0.099       7074.31       6920.21       7074.31
         0.1       6914.83       6807.45       6914.83
       0.101       6757.39       6697.24       6757.39
       0.102       6603.07       6589.51       6603.07
       0.103        6452.9       6484.19        6452.9
       0.104       6307.77       6381.21       6307.77
       0.105       6168.44       6280.51       6168.44
       0.106       6035.57       6182.02       6035.57
       0.107       5909.65       6085.69       5909.65
       0.108       5791.02       5991.44       5791.02
       0.109        5679.9       5899.23        5679.9
        0.11       5576.35       5808.99       5576.35
       0.111       5480.31       5720.68       5480.31
       0.112       5391.59       5634.24       5391.59
       0.113       5309.89       5549.62       5309.89
       0.114       5234.79       5466.77       5234.79
       0.115       5165.83       5385.65       5165.83
       0.116       5102.42       5306.21       5102.42
       0.117       5043.95        5228.4       5043.95
       0.118       4989.76       5152.19       4989.76
       0.119       4939.16       5077.53       4939.16
        0.12       4891.43       5004.37       4891.43
       0.121       4845.89       4932.69       4845.89
       0.122       4801.84       4862.45       4801.84
       0.123       4758.64        4793.6       4758.64
       0.124       4715.68       4726.11       4715.68
       0.125       4672.39       4659.95       4672.39
       0.126       4628.31       4595.09       4628.31
       0.127          4583       4531.48          4583
       0.128       4536.15       4469.11       4536.15
       0.129       4487.49       4407.94       4487.49
        0.13       4436.87       4347.94       4436.87
       0.131       4384.21       4289.08       4384.21
       0.132        4329.5       4231.34        4329.5
       0.133       4272.83       4174.68       4272.83
       0.134       4214.34       4119.09       4214.34
       0.135       4154.26       4064.53       4154.26
       0.136       4092.84       4010.98       4092.84
       0.137       4030.39       3958.42       4030.39
       0.138       3967.25       3906.83       3967.25
       0.139       3903.77       3856.18       3903.77
        0.14       3840.33       3806.44       3840.33
       0.141       3777.28       3757.61       3777.28
       0.142          3715       3709.65          3715
       0.143        3653.8       3662.55        3653.8
       0.144       3594.01       3616.28       3594.01
       0.145        3535.9       3570.84        3535.9
       0.146        3479.7        3526.2        3479.7
       0.147       3425.62       3482.33       3425.62
       0.148       3373.81       3439.24       3373.81
       0.149       3324.38       3396.89       3324.38
        0.15       3277.39       3355.27       3277.39
       0.151       3232.86       3314.37       3232.86
       0.152       3190.77       3274.16       3190.77
       0.153       3151.05       3234.64       3151.05
       0.154       3113.62       3195.79       3113.62
       0.155       3078.34       3157.59       3078.34
       0.156       3045.05       3120.04       3045.05
       0.157       3013.58       3083.11       3013.58
       0.158       2983.72       3046.79       2983.72
       0.159       2955.26       3011.07       2955.26
        0.16          2928       2975.94          2928
       0.161       2901.69       2941.39       2901.69
       0.162       2876.13        2907.4       2876.13
       0.163       2851.11       2873.96       2851.11
       0.164       2826.41       2841.06       2826.41
       0.165       2801.85       2808.69       2801.85
       0.166       2777.27       2776.83       2777.27
       0.167       2752.52       2745.49       2752.52
       0.168       2727.47       2714.64       2727.47
       0.169       2702.02       2684.27       2702.02
        0.17       2676.11       2654.39       2676.11
       0.171       2649.69       2624.97       2649.69
       0.172       2622.73       2596.01       2622.73
       0.173       2595.24        2567.5       2595.24
       0.174       2567.25       2539.42       2567.25
       0.175        2538.8       2511.78        2538.8
       0.176       2509.96       2484.56       2509.96
       0.177       2480.82       2457.76       2480.82
       0.178       2451.46       2431.36       2451.46
       0.179       2421.99       2405.36       2421.99
        0.18       2392.52       2379.75       2392.52
       0.181       2363.17       2354.52       2363.17
       0.182       2334.04       2329.67       2334.04
       0.183       2305.24       2305.19       2305.24
       0.184       2276.87       2281.07       2276.87
       0.185       2249.04       2257.31       2249.04
       0.186       2221.82       2233.89       2221.82
       0.187       2195.29       2210.81       2195.29
       0.188       2169.51       2188.07       2169.51
       0.189       2144.52       2165.66       2144.52
        0.19       2120.36       2143.57       2120.36
       0.191       2097.05       2121.79       2097.05
       0.192       2074.59       2100.33       2074.59
       0.193       2052.97       2079.18       2052.97
       0.194       2032.18       2058.32       2032.18
       0.195       2012.18       2037.75       2012.18
       0.196       1992.93       2017.48       1992.93
       0.197       1974.38       1997.49       1974.38
       0.198       1956.47       1977.78       1956.47
       0.199       1939.14       1958.34       1939.14
         0.2       1922.32       1939.17       1922.32
       0.201       1905.94       1920.26       1905.94
       0.202       1889.94       1901.62       1889.94
       0.203       1874.24       1883.22       1874.24
       0.204       1858.78       1865.08       1858.78
       0.205       1843.49       1847.18       1843.49
       0.206       1828.32       1829.53       1828.32
       0.207       1813.21       1812.11       1813.21
       0.208       1798.13       1794.93       1798.13
       0.209       1783.02       1777.97       1783.02
        0.21       1767.86       1761.24       1767.86
       0.211       1752.63       1744.74       1752.63
       0.212       1737.32       1728.44       1737.32
       0.213       1721.91       1712.37       1721.91
       0.214       1706.41        1696.5       1706.41
       0.215       1690.83       1680.84       1690.83
       0.216       1675.18       1665.39       1675.18
       0.217       1659.48       1650.13       1659.48
       0.218       1643.75       1635.07       1643.75
       0.219       1628.03        1620.2       1628.03
        0.22       1612.34       1605.53       1612.34
       0.221       1596.73       1591.04       1596.73
       0.222       1581.21       1576.74       1581.21
       0.223       1565.82       1562.61       1565.82
       0.224       1550.61       1548.67       1550.61
       0.225       1535.59        1534.9       1535.59
       0.226       1520.79        1521.3       1520.79
       0.227       1506.25       1507.87       1506.25
       0.228       1491.98       1494.61       1491.98
       0.229          1478       1481.51          1478
        0.23       1464.32       1468.57       1464.32
       0.231       1450.95       1455.79       1450.95
       0.232       1437.91       1443.17       1437.91
       0.233       1425.18       1430.71       1425.18
       0.234       1412.77       1418.39       1412.77
       0.235       1400.67       1406.23       1400.67
       0.236       1388.87       1394.21       1388.87
       0.237       1377.35       1382.33       1377.35
       0.238        1366.1        1370.6        1366.1
       0.239        1355.1       1359.01        1355.1
        0.24       1344.33       1347.55       1344.33
       0.241       1333.77       1336.23       1333.77
       0.242       1323.39       1325.05       1323.39
       0.243       1313.18          1314       1313.18
       0.244       1303.12       1303.08       1303.12
       0.245       1293.17       1292.28       1293.17
       0.246       1283.33       1281.61       1283.33
       0.247       1273.57       1271.07       1273.57
       0.248       1263.89       1260.64       1263.89
       0.249       1254.25       1250.34       1254.25
        0.25       1244.66       1240.16       1244.66
       0.251       1235.09       1230.09       1235.09
       0.252       1225.56       1220.14       1225.56
       0.253       1216.04        1210.3       1216.04
       0.254       1206.54       1200.57       1206.54
       0.255       1197.06       1190.95       1197.06
       0.256        1187.6       1181.44        1187.6
       0.257       1178.17       1172.04       1178.17
       0.258       1168.76       1162.75       1168.76
       0.259       1159.39       1153.55       1159.39
        0.26       1150.07       1144.46       1150.07
       0.261       1140.79       1135.47       1140.79
       0.262       1131.58       1126.58       1131.58
       0.263       1122.45       1117.79       1122.45
       0.264       1113.39        1109.1       1113.39
       0.265       1104.43        1100.5       1104.43
       0.266       1095.56       1091.99       1095.56
       0.267       1086.81       1083.58       1086.81
       0.268       1078.17       1075.25       1078.17
       0.269       1069.65       1067.02       1069.65
        0.27       1061.26       1058.88       1061.26
       0.271          1053       1050.82          1053
       0.272       1044.87       1042.85       1044.87
       0.273       1036.87       1034.97       1036.87
       0.274       1029.01       1027.17       1029.01
       0.275       1021.28       1019.45       1021.28
       0.276       1013.68       1011.81       1013.68
       0.277        1006.2       1004.26        1006.2
       0.278        998.85       996.779        998.85
       0.279       991.613       989.381       991.613
        0.28       984.486       982.061       984.486
       0.281       977.463       974.816       977.463
       0.282       970.536       967.647       970.536
       0.283       963.699       960.552       963.699
       0.284       956.945        953.53       956.945
       0.285       950.267       946.581       950.267
       0.286       943.658       939.703       943.658
       0.287       937.112       932.895       937.112
       0.288       930.623       926.157       930.623
       0.289       924.186       919.487       924.186
        0.29       917.796       912.885       917.796
       0.291       911.449        906.35       911.449
       0.292       905.143        899.88       905.143
       0.293       898.874       893.476       898.874
       0.294       892.641       887.136       892.641
       0.295       886.442       880.859       886.442
       0.296       880.279       874.644       880.279
       0.297        874.15       868.492        874.15
       0.298       868.056         862.4       868.056
       0.299           862       856.368           862
         0.3       855.982       850.396       855.982
       0.301       850.006       844.483       850.006
       0.302       844.072       838.627       844.072
       0.303       838.185       832.829       838.185
       0.304       832.346       827.087       832.346
       0.305       826.557         821.4       826.557
       0.306       820.823       815.769       820.823
       0.307       815.144       810.192       815.144
       0.308       809.524       804.669       809.524
       0.309       803.963       799.199       803.963
        0.31       798.464       793.781       798.464
       0.311       793.028       788.415       793.028
       0.312       787.655         783.1       787.655
       0.313       782.347       777.836       782.347
       0.314       777.102       772.621       777.102
       0.315       771.922       767.456       771.922
       0.316       766.805       762.339       766.805
       0.317        761.75        757.27        761.75
       0.318       756.757       752.249       756.757
       0.319       751.822       747.274       751.822
        0.32       746.946       742.346       746.946
       0.321       742.124       737.464       742.124
       0.322       737.356       732.626       737.356
       0.323       732.639       727.834       732.639
       0.324       727.971       723.086       727.971
       0.325        723.35       718.381        723.35
       0.326       718.772       713.719       718.772
       0.327       714.236         709.1       714.236
       0.328        709.74       704.523        709.74
       0.329       705.282       699.988       705.282
        0.33        700.86       695.493        700.86
       0.331       696.472        691.04       696.472
       0.332       692.117       686.626       692.117
       0.333       687.793       682.252       687.793
       0.334       683.501       677.918       683.501
       0.335       679.238       673.622       679.238
       0.336       675.005       669.364       675.005
       0.337       670.801       665.145       670.801
       0.338       666.626       660.963       666.626
       0.339       662.481       656.818       662.481
        0.34       658.365       652.709       658.365
       0.341       654.278       648.637       654.278
       0.342       650.221         644.6       650.221
       0.343       646.196       640.599       646.196
       0.344       642.201       636.633       642.201
       0.345       638.238       632.701       638.238
       0.346       634.308       628.803       634.308
       0.347       630.411        624.94       630.411
       0.348       626.548       621.109       626.548
       0.349       622.719       617.312       622.719
        0.35       618.924       613.547       618.924
       0.351       615.165       609.815       615.165
       0.352       611.441       606.115       611.441
       0.353       607.752       602.446       607.752
       0.354       604.098       598.809       604.098
       0.355       600.479       595.202       600.479
       0.356       596.896       591.626       596.896
       0.357       593.347       588.081       593.347
       0.358       589.833       584.565       589.833
       0.359       586.352       581.079       586.352
        0.36       582.904       577.622       582.904
       0.361       579.489       574.194       579.489
       0.362       576.105       570.794       576.105
       0.363       572.753       567.423       572.753
       0.364        569.43        564.08        569.43
       0.365       566.136       560.765       566.136
       0.366       562.871       557.477       562.871
       0.367       559.633       554.216       559.633
       0.368       556.422       550.983       556.422
       0.369       553.236       547.775       553.236
        0.37       550.076       544.594       550.076
       0.371        546.94       541.439        546.94
       0.372       543.828        538.31       543.828
       0.373       540.739       535.206       540.739
       0.374       537.672       532.127       537.672
       0.375       534.628       529.074       534.628
       0.376       531.605       526.044       531.605
       0.377       528.604        523.04       528.604
       0.378       525.625       520.059       525.625
       0.379       522.666       517.103       522.666
        0.38       519.729        514.17       519.729
       0.381       516.812        511.26       516.812
       0.382       513.917       508.374       513.917
       0.383       511.042        505.51       511.042
       0.384       508.189       502.669       508.189
       0.385       505.356       499.851       505.356
       0.386       502.545       497.055       502.545
       0.387       499.755       494.281       499.755
       0.388       496.987       491.529       496.987
       0.389        494.24       488.798        494.24
        0.39       491.515       486.089       491.515
       0.391       488.811         483.4       488.811
       0.392        486.13       480.733        486.13
       0.393       483.469       478.086       483.469
       0.394       480.831        475.46       480.831
       0.395       478.214       472.855       478.214
       0.396       475.619       470.269       475.619
       0.397       473.044       467.703       473.044
       0.398       470.491       465.157       470.491
       0.399       467.959        462.63       467.959
         0.4       465.448       460.123       465.448
       0.401       462.957       457.635       462.957
       0.402       460.486       455.166       460.486
       0.403       458.035       452.715       458.035
       0.404       455.604       450.283       455.604
       0.405       453.191       447.869       453.191
       0.406       450.798       445.474       450.798
       0.407       448.422       443.097       448.422
       0.408       446.065       440.737       446.065
       0.409       443.725       438.395       443.725
        0.41       441.402       436.071       441.402
       0.411       439.097       433.764       439.097
       0.412       436.808       431.474       436.808
       0.413       434.535       429.201       434.535
       0.414       432.278       426.946       432.278
       0.415       430.038       424.706       430.038
       0.416       427.812       422.483       427.812
       0.417       425.602       420.277       425.602
       0.418       423.408       418.087       423.408
       0.419       421.228       415.913       421.228
        0.42       419.063       413.754       419.063
       0.421       416.913       411.612       416.913
       0.422       414.777       409.485       414.777
       0.423       412.656       407.374       412.656
       0.424        410.55       405.278        410.55
       0.425       408.458       403.197       408.458
       0.426       406.381       401.131       406.381
       0.427       404.318        399.08       404.318
       0.428        402.27       397.043        402.27
       0.429       400.236       395.022       400.236
        0.43       398.216       393.015       398.216
       0.431       396.211       391.022       396.211
       0.432        394.22       389.043        394.22
       0.433       392.244       387.079       392.244
       0.434       390.282       385.128       390.282
       0.435       388.334       383.191       388.334
       0.436         386.4       381.268         386.4
       0.437        384.48       379.359        384.48
       0.438       382.575       377.463       382.575
       0.439       380.683        375.58       380.683
        0.44       378.805        373.71       378.805
       0.441        376.94       371.854        376.94
       0.442       375.089        370.01       375.089
       0.443       373.252        368.18       373.252
       0.444       371.427       366.362       371.427
       0.445       369.616       364.557       369.616
       0.446       367.818       362.764       367.818
       0.447       366.032       360.983       366.032
       0.448       364.258       359.215       364.258
       0.449       362.497        357.46       362.497
        0.45       360.748       355.716       360.748
       0.451       359.011       353.984       359.011
       0.452       357.285       352.264       357.285
       0.453       355.571       350.556       355.571
       0.454       353.869       348.859       353.869
       0.455       352.177       347.174       352.177
       0.456       350.497         345.5       350.497
       0.457       348.828       343.838       348.828
       0.458       347.169       342.187       347.169
       0.459       345.521       340.547       345.521
        0.46       343.884       338.918       343.884
       0.461       342.257         337.3       342.257
       0.462       340.641       335.693       340.641
       0.463       339.035       334.097       339.035
       0.464        337.44       332.511        337.44
       0.465       335.854       330.936       335.854
       0.466       334.279       329.372       334.279
       0.467       332.714       327.818       332.714
       0.468       331.159       326.274       331.159
       0.469       329.614        324.74       329.614
        0.47       328.079       323.217       328.079
       0.471       326.554       321.703       326.554
       0.472       325.039         320.2       325.039
       0.473       323.535       318.706       323.535
       0.474       322.039       317.222       322.039
       0.475       320.554       315.748       320.554
       0.476       319.079       314.284       319.079
       0.477       317.613       312.829       317.613
       0.478       316.157       311.383       316.157
       0.479       314.711       309.947       314.711
        0.48       313.274       308.521       313.274
       0.481       311.847       307.103       311.847
       0.482       310.429       305.695       310.429
       0.483       309.021       304.295       309.021
       0.484       307.622       302.905       307.622
       0.485       306.232       301.524       306.232
       0.486       304.851       300.151       304.851
       0.487       303.479       298.787       303.479
       0.488       302.116       297.432       302.116
       0.489       300.762       296.086       300.762
        0.49       299.416       294.748       299.416
       0.491       298.079       293.419       298.079
       0.492        296.75       292.098        296.75
       0.493        295.43       290.785        295.43
       0.494       294.117       289.481       294.117
       0.495       292.813       288.185       292.813
       0.496       291.517       286.897       291.517
       0.497       290.229       285.617       290.229
       0.498       288.949       284.346       288.949
       0.499       287.676       283.082       287.676
         0.5       286.411       281.826       286.411
       0.501       285.154       280.578       285.154
       0.502       283.904       279.337       283.904
       0.503       282.662       278.105       282.662
       0.504       281.427        276.88       281.427
       0.505       280.199       275.662       280.199
       0.506       278.979       274.452       278.979
       0.507       277.766        273.25       277.766
       0.508       276.561       272.055       276.561
       0.509       275.363       270.867       275.363
        0.51       274.171       269.687       274.171
       0.511       272.987       268.514       272.987
       0.512       271.811       267.348       271.811
       0.513       270.641       266.189       270.641
       0.514       269.478       265.037       269.478
       0.515       268.323       263.892       268.323
       0.516       267.174       262.754       267.174
       0.517       266.033       261.623       266.033
       0.518       264.898       260.499       264.898
       0.519       263.771       259.382       263.771
        0.52        262.65       258.271        262.65
       0.521       261.536       257.167       261.536
       0.522       260.429        256.07       260.429
       0.523       259.329       254.979       259.329
       0.524       258.235       253.895       258.235
       0.525       257.148       252.817       257.148
       0.526       256.068       251.746       256.068
       0.527       254.994       250.681       254.994
       0.528       253.926       249.622       253.926
       0.529       252.865        248.57       252.865
        0.53       251.811       247.523       251.811
       0.531       250.762       246.484       250.762
       0.532        249.72        245.45        249.72
       0.533       248.684       244.422       248.684
       0.534       247.654         243.4       247.654
       0.535       246.629       242.385       246.629
       0.536       245.611       241.375       245.611
       0.537       244.599       240.371       244.599
       0.538       243.592       239.373       243.592
       0.539       242.591       238.381       242.591
        0.54       241.596       237.395       241.596
       0.541       240.606       236.414       240.606
       0.542       239.622       235.439       239.622
       0.543       238.643        234.47       238.643
       0.544        237.67       233.506        237.67
       0.545       236.702       232.548       236.702
       0.546        235.74       231.595        235.74
       0.547       234.783       230.648       234.783
       0.548       233.832       229.706       233.832
       0.549       232.886        228.77       232.886
        0.55       231.945       227.839       231.945
       0.551       231.009       226.914       231.009
       0.552       230.079       225.993       230.079
       0.553       229.153       225.078       229.153
       0.554       228.234       224.168       228.234
       0.555       227.319       223.264       227.319
       0.556       226.409       222.364       226.409
       0.557       225.505       221.469       225.505
       0.558       224.605        220.58       224.605
       0.559       223.711       219.695       223.711
        0.56       222.822       218.816       222.822
       0.561       221.938       217.941       221.938
       0.562       221.059       217.072       221.059
       0.563       220.185       216.207       220.185
       0.564       219.316       215.347       219.316
       0.565       218.452       214.492       218.452
       0.566       217.593       213.642       217.593
       0.567       216.738       212.796       216.738
       0.568       215.889       211.955       215.889
       0.569       215.044       211.119       215.044
        0.57       214.204       210.287       214.204
       0.571       213.368        209.46       213.368
       0.572       212.537       208.638       212.537
       0.573       211.711        207.82       211.711
       0.574       210.889       207.006       210.889
       0.575       210.072       206.197       210.072
       0.576       209.259       205.393       209.259
       0.577        208.45       204.593        208.45
       0.578       207.646       203.797       207.646
       0.579       206.846       203.006       206.846
        0.58       206.051       202.218       206.051
       0.581       205.259       201.436       205.259
       0.582       204.472       200.657       204.472
       0.583       203.689       199.883       203.689
       0.584        202.91       199.113        202.91
       0.585       202.135       198.347       202.135
       0.586       201.365       197.585       201.365
       0.587       200.598       196.827       200.598
       0.588       199.835       196.073       199.835
       0.589       199.077       195.324       199.077
        0.59       198.322       194.578       198.322
       0.591       197.571       193.837       197.571
       0.592       196.824       193.099       196.824
       0.593       196.081       192.365       196.081
       0.594       195.342       191.635       195.342
       0.595       194.607        190.91       194.607
       0.596       193.876       190.187       193.876
       0.597       193.149       189.469       193.149
       0.598       192.425       188.755       192.425
       0.599       191.706       188.044       191.706
         0.6        190.99       187.337        190.99
       0.601       190.278       186.634       190.278
       0.602        189.57       185.935        189.57
       0.603       188.865       185.239       188.865
       0.604       188.165       184.547       188.165
       0.605       187.468       183.858       187.468
       0.606       186.774       183.174       186.774
       0.607       186.085       182.492       186.085
       0.608       185.399       181.815       185.399
       0.609       184.716        181.14       184.716
        0.61       184.038        180.47       184.038
       0.611       183.362       179.802       183.362
       0.612       182.691       179.139       182.691
       0.613       182.022       178.478       182.022
       0.614       181.358       177.821       181.358
       0.615       180.696       177.168       180.696
       0.616       180.038       176.518       180.038
       0.617       179.383       175.871       179.383
       0.618       178.732       175.227       178.732
       0.619       178.084       174.587       178.084
        0.62       177.439        173.95       177.439
       0.621       176.798       173.317       176.798
       0.622       176.159       172.686       176.159
       0.623       175.524       172.059       175.524
       0.624       174.892       171.435       174.892
       0.625       174.263       170.814       174.263
       0.626       173.637       170.197       173.637
       0.627       173.015       169.582       173.015
       0.628       172.395       168.971       172.395
       0.629       171.779       168.362       171.779
        0.63       171.165       167.757       171.165
       0.631       170.555       167.155       170.555
       0.632       169.947       166.556       169.947
       0.633       169.343       165.959       169.343
       0.634       168.741       165.366       168.741
       0.635       168.143       164.776       168.143
       0.636       167.547       164.189       167.547
       0.637       166.954       163.605       166.954
       0.638       166.365       163.023       166.365
       0.639       165.778       162.445       165.778
        0.64       165.194       161.869       165.194
       0.641       164.614       161.296       164.614
       0.642       164.036       160.726       164.036
       0.643       163.461       160.159       163.461
       0.644       162.888       159.595       162.888
       0.645       162.319       159.033       162.319
       0.646       161.753       158.475       161.753
       0.647       161.189       157.919       161.189
       0.648       160.628       157.365       160.628
       0.649        160.07       156.815        160.07
        0.65       159.515       156.267       159.515
       0.651       158.962       155.722       158.962
       0.652       158.412       155.179       158.412
       0.653       157.865        154.64       157.865
       0.654        157.32       154.102        157.32
       0.655       156.779       153.568       156.779
       0.656       156.239       153.036       156.239
       0.657       155.703       152.506       155.703
       0.658       155.169        151.98       155.169
       0.659       154.637       151.455       154.637
        0.66       154.108       150.934       154.108
       0.661       153.582       150.414       153.582
       0.662       153.058       149.898       153.058
       0.663       152.536       149.383       152.536
       0.664       152.017       148.872       152.017
       0.665       151.501       148.362       151.501
       0.666       150.986       147.855       150.986
       0.667       150.475       147.351       150.475
       0.668       149.965       146.849       149.965
       0.669       149.458       146.349       149.458
        0.67       148.953       145.852       148.953
       0.671       148.451       145.357       148.451
       0.672       147.951       144.865       147.951
       0.673       147.454       144.375       147.454
       0.674       146.958       143.887       146.958
       0.675       146.465       143.401       146.465
       0.676       145.974       142.918       145.974
       0.677       145.486       142.437       145.486
       0.678           145       141.958           145
       0.679       144.516       141.482       144.516
        0.68       144.035       141.008       144.035
       0.681       143.555       140.536       143.555
       0.682       143.078       140.066       143.078
       0.683       142.603       139.598       142.603
       0.684       142.131       139.133       142.131
       0.685       141.661        138.67       141.661
       0.686       141.192       138.209       141.192
       0.687       140.727        137.75       140.727
       0.688       140.263       137.293       140.263
       0.689       139.801       136.838       139.801
        0.69       139.342       136.386       139.342
       0.691       138.885       135.935       138.885
       0.692        138.43       135.487        138.43
       0.693       137.977       135.041       137.977
       0.694       137.526       134.596       137.526
       0.695       137.077       134.154       137.077
       0.696        136.63       133.714        136.63
       0.697       136.185       133.276       136.185
       0.698       135.743        132.84       135.743
       0.699       135.302       132.406       135.302
         0.7       134.863       131.974       134.863
       0.701       134.427       131.544       134.427
       0.702       133.992       131.115       133.992
       0.703       133.559       130.689       133.559
       0.704       133.128       130.265       133.128
       0.705       132.699       129.843       132.699
       0.706       132.272       129.422       132.272
       0.707       131.847       129.004       131.847
       0.708       131.424       128.587       131.424
       0.709       131.003       128.172       131.003
        0.71       130.583       127.759       130.583
       0.711       130.165       127.348       130.165
       0.712        129.75       126.939        129.75
       0.713       129.336       126.532       129.336
       0.714       128.923       126.126       128.923
       0.715       128.513       125.723       128.513
       0.716       128.105       125.321       128.105
       0.717       127.698       124.921       127.698
       0.718       127.293       124.522       127.293
       0.719        126.89       124.126        126.89
        0.72       126.488       123.731       126.488
       0.721       126.089       123.338       126.089
       0.722       125.691       122.947       125.691
       0.723       125.295       122.558       125.295
       0.724       124.901        122.17       124.901
       0.725       124.509       121.784       124.509
       0.726       124.118       121.399       124.118
       0.727       123.729       121.017       123.729
       0.728       123.342       120.636       123.342
       0.729       122.956       120.257       122.956
        0.73       122.572       119.879       122.572
       0.731        122.19       119.503        122.19
       0.732        121.81       119.129        121.81
       0.733       121.431       118.756       121.431
       0.734       121.054       118.385       121.054
       0.735       120.679       118.016       120.679
       0.736       120.305       117.648       120.305
       0.737       119.933       117.282       119.933
       0.738       119.562       116.917       119.562
       0.739       119.193       116.554       119.193
        0.74       118.826       116.193       118.826
       0.741        118.46       115.833        118.46
       0.742       118.096       115.475       118.096
       0.743       117.733       115.118       117.733
       0.744       117.372       114.763       117.372
       0.745       117.013       114.409       117.013
       0.746       116.655       114.057       116.655
       0.747       116.298       113.707       116.298
       0.748       115.943       113.357       115.943
       0.749        115.59        113.01        115.59
        0.75       115.238       112.664       115.238
       0.751       114.887       112.319       114.887
       0.752       114.538       111.976       114.538
       0.753        114.19       111.634        114.19
       0.754       113.844       111.294       113.844
       0.755       113.499       110.955       113.499
       0.756       113.156       110.618       113.156
       0.757       112.814       110.282       112.814
       0.758       112.474       109.948       112.474
       0.759       112.135       109.615       112.135
        0.76       111.798       109.283       111.798
       0.761       111.461       108.953       111.461
       0.762       111.127       108.624       111.127
       0.763       110.793       108.297       110.793
       0.764       110.462       107.971       110.462
       0.765       110.131       107.646       110.131
       0.766       109.802       107.323       109.802
       0.767       109.474       107.001       109.474
       0.768       109.148        106.68       109.148
       0.769       108.823       106.361       108.823
        0.77         108.5       106.043         108.5
       0.771       108.178       105.726       108.178
       0.772       107.857       105.411       107.857
       0.773       107.537       105.097       107.537
       0.774       107.219       104.784       107.219
       0.775       106.903       104.473       106.903
       0.776       106.587       104.163       106.587
       0.777       106.273       103.854       106.273
       0.778        105.96       103.547        105.96
       0.779       105.649       103.241       105.649
        0.78       105.338       102.936       105.338
       0.781       105.029       102.632       105.029
       0.782       104.722        102.33       104.722
       0.783       104.415       102.028       104.415
       0.784        104.11       101.728        104.11
       0.785       103.806        101.43       103.806
       0.786       103.503       101.132       103.503
       0.787       103.201       100.836       103.201
       0.788       102.901       100.541       102.901
       0.789       102.602       100.247       102.602
        0.79       102.304       99.9545       102.304
       0.791       102.007       99.6631       102.007
       0.792       101.712       99.3729       101.712
       0.793       101.417       99.0838       101.417
       0.794       101.124       98.7959       101.124
       0.795       100.832       98.5092       100.832
       0.796       100.541       98.2236       100.541
       0.797       100.252       97.9393       100.252
       0.798        99.963        97.656        99.963
       0.799       99.6756       97.3739       99.6756
         0.8       99.3894        97.093       99.3894
       0.801       99.1043       96.8131       99.1043
       0.802       98.8204       96.5345       98.8204
       0.803       98.5376       96.2569       98.5376
       0.804       98.2559       95.9804       98.2559
       0.805       97.9754       95.7051       97.9754
       0.806        97.696       95.4309        97.696
       0.807       97.4178       95.1577       97.4178
       0.808       97.1406       94.8857       97.1406
       0.809       96.8646       94.6147       96.8646
        0.81       96.5897       94.3449       96.5897
       0.811       96.3159       94.0761       96.3159
       0.812       96.0432       93.8083       96.0432
       0.813       95.7716       93.5417       95.7716
       0.814       95.5011       93.2761       95.5011
       0.815       95.2316       93.0115       95.2316
       0.816       94.9633        92.748       94.9633
       0.817       94.6959       92.4856       94.6959
       0.818       94.4297       92.2242       94.4297
       0.819       94.1645       91.9638       94.1645
        0.82       93.9004       91.7044       93.9004
       0.821       93.6373       91.4461       93.6373
       0.822       93.3752       91.1888       93.3752
       0.823       93.1141       90.9325       93.1141
       0.824       92.8541       90.6772       92.8541
       0.825        92.595       90.4229        92.595
       0.826        92.337       90.1697        92.337
       0.827       92.0799       89.9174       92.0799
       0.828       91.8239        89.666       91.8239
       0.829       91.5688       89.4157       91.5688
        0.83       91.3147       89.1664       91.3147
       0.831       91.0616        88.918       91.0616
       0.832       90.8094       88.6706       90.8094
       0.833       90.5582       88.4241       90.5582
       0.834        90.308       88.1786        90.308
       0.835       90.0587       87.9341       90.0587
       0.836       89.8104       87.6905       89.8104
       0.837        89.563       87.4479        89.563
       0.838       89.3166       87.2062       89.3166
       0.839       89.0711       86.9654       89.0711
        0.84       88.8265       86.7256       88.8265
       0.841       88.5829       86.4867       88.5829
       0.842       88.3402       86.2487       88.3402
       0.843       88.0984       86.0116       88.0984
       0.844       87.8576       85.7754       87.8576
       0.845       87.6177       85.5401       87.6177
       0.846       87.3787       85.3058       87.3787
       0.847       87.1407       85.0723       87.1407
       0.848       86.9035       84.8398       86.9035
       0.849       86.6673       84.6081       86.6673
        0.85        86.432       84.3773        86.432
       0.851       86.1976       84.1474       86.1976
       0.852        85.964       83.9183        85.964
       0.853       85.7314       83.6902       85.7314
       0.854       85.4997       83.4629       85.4997
       0.855       85.2688       83.2364       85.2688
       0.856       85.0389       83.0109       85.0389
       0.857       84.8098       82.7861       84.8098
       0.858       84.5816       82.5623       84.5816
       0.859       84.3542       82.3392       84.3542
        0.86       84.1277       82.1171       84.1277
       0.861       83.9021       81.8957       83.9021
       0.862       83.6773       81.6752       83.6773
       0.863       83.4533       81.4555       83.4533
       0.864       83.2302       81.2367       83.2302
       0.865       83.0079       81.0186       83.0079
       0.866       82.7864       80.8014       82.7864
       0.867       82.5657        80.585       82.5657
       0.868       82.3459       80.3694       82.3459
       0.869       82.1269       80.1546       82.1269
        0.87       81.9086       79.9407       81.9086
       0.871       81.6912       79.7275       81.6912
       0.872       81.4746       79.5151       81.4746
       0.873       81.2587       79.3035       81.2587
       0.874       81.0437       79.0927       81.0437
       0.875       80.8294       78.8827       80.8294
       0.876       80.6159       78.6734       80.6159
       0.877       80.4032       78.4649       80.4032
       0.878       80.1913       78.2572       80.1913
       0.879       79.9801       78.0503       79.9801
        0.88       79.7697       77.8441       79.7697
       0.881       79.5601       77.6387       79.5601
       0.882       79.3513       77.4341       79.3513
       0.883       79.1432       77.2302       79.1432
       0.884       78.9359        77.027       78.9359
       0.885       78.7293       76.8246       78.7293
       0.886       78.5235        76.623       78.5235
       0.887       78.3185       76.4221       78.3185
       0.888       78.1142       76.2219       78.1142
       0.889       77.9107       76.0225       77.9107
        0.89       77.7079       75.8237       77.7079
       0.891       77.5059       75.6258       77.5059
       0.892       77.3046       75.4285       77.3046
       0.893        77.104       75.2319        77.104
       0.894       76.9042       75.0361       76.9042
       0.895       76.7051        74.841       76.7051
       0.896       76.5067       74.6466       76.5067
       0.897       76.3091       74.4529       76.3091
       0.898       76.1122       74.2599       76.1122
       0.899        75.916       74.0676        75.916
         0.9       75.7205        73.876       75.7205
       0.901       75.5257       73.6851       75.5257
       0.902       75.3316       73.4948       75.3316
       0.903       75.1382       73.3053       75.1382
       0.904       74.9455       73.1164       74.9455
       0.905       74.7535       72.9283       74.7535
       0.906       74.5622       72.7408       74.5622
       0.907       74.3716       72.5539       74.3716
       0.908       74.1816       72.3678       74.1816
       0.909       73.9923       72.1823       73.9923
        0.91       73.8037       71.9975       73.8037
       0.911       73.6157       71.8133       73.6157
       0.912       73.4284       71.6298       73.4284
       0.913       73.2417        71.447       73.2417
       0.914       73.0557       71.2648       73.0557
       0.915       72.8704       71.0832       72.8704
       0.916       72.6857       70.9023       72.6857
       0.917       72.5017       70.7221       72.5017
       0.918       72.3183       70.5424       72.3183
       0.919       72.1355       70.3635       72.1355
        0.92       71.9534       70.1851       71.9534
       0.921       71.7719       70.0074       71.7719
       0.922        71.591       69.8303        71.591
       0.923       71.4108       69.6539       71.4108
       0.924       71.2312        69.478       71.2312
       0.925       71.0523       69.3028       71.0523
       0.926        70.874       69.1282        70.874
       0.927       70.6963       68.9542       70.6963
       0.928       70.5192       68.7808       70.5192
       0.929       70.3428       68.6081       70.3428
        0.93        70.167       68.4359        70.167
       0.931       69.9918       68.2644       69.9918
       0.932       69.8172       68.0934       69.8172
       0.933       69.6432       67.9231       69.6432
       0.934       69.4699       67.7533       69.4699
       0.935       69.2971       67.5841       69.2971
       0.936        69.125       67.4155        69.125
       0.937       68.9535       67.2476       68.9535
       0.938       68.7825       67.0802       68.7825
       0.939       68.6122       66.9133       68.6122
        0.94       68.4425       66.7471       68.4425
       0.941       68.2733       66.5814       68.2733
       0.942       68.1047       66.4163       68.1047
       0.943       67.9368       66.2518       67.9368
       0.944       67.7694       66.0879       67.7694
       0.945       67.6025       65.9245       67.6025
       0.946       67.4363       65.7616       67.4363
       0.947       67.2706       65.5994       67.2706
       0.948       67.1054       65.4377       67.1054
       0.949       66.9409       65.2765       66.9409
        0.95       66.7769        65.116       66.7769
       0.951       66.6134       64.9559       66.6134
       0.952       66.4505       64.7964       66.4505
       0.953       66.2882       64.6375       66.2882
       0.954       66.1264       64.4791       66.1264
       0.955       65.9651       64.3212       65.9651
       0.956       65.8044       64.1639       65.8044
       0.957       65.6442       64.0071       65.6442
       0.958       65.4846       63.8509       65.4846
       0.959       65.3255       63.6952       65.3255
        0.96       65.1669         63.54       65.1669
       0.961       65.0089       63.3854       65.0089
       0.962       64.8514       63.2312       64.8514
       0.963       64.6944       63.0776       64.6944
       0.964        64.538       62.9246        64.538
       0.965        64.382        62.772        64.382
       0.966       64.2267       62.6199       64.2267
       0.967       64.0718       62.4684       64.0718
       0.968       63.9175       62.3174       63.9175
       0.969       63.7636       62.1669       63.7636
        0.97       63.6103       62.0169       63.6103
       0.971       63.4576       61.8674       63.4576
       0.972       63.3053       61.7184       63.3053
       0.973       63.1536       61.5699       63.1536
       0.974       63.0023       61.4219       63.0023
       0.975       62.8516       61.2744       62.8516
       0.976       62.7014       61.1274       62.7014
       0.977       62.5517       60.9809       62.5517
       0.978       62.4025       60.8349       62.4025
       0.979       62.2538       60.6893       62.2538
        0.98       62.1056       60.5443       62.1056
       0.981       61.9579       60.3997       61.9579
       0.982       61.8107       60.2557       61.8107
       0.983        61.664       60.1121        61.664
       0.984       61.5177       59.9689       61.5177
       0.985        61.372       59.8263        61.372
       0.986       61.2267       59.6841       61.2267
       0.987       61.0819       59.5424       61.0819
       0.988       60.9376       59.4012       60.9376
       0.989       60.7938       59.2604       60.7938
        0.99       60.6504       59.1201       60.6504
       0.991       60.5075       58.9803       60.5075
       0.992        60.365       58.8409        60.365
       0.993       60.2231        58.702       60.2231
       0.994       60.0815       58.5635       60.0815
       0.995       59.9405       58.4255       59.9405
       0.996       59.7999        58.288       59.7999
       0.997       59.6597       58.1509       59.6597
       0.998         59.52       58.0143         59.52
       0.999       59.3808       57.8781       59.3808
           1        59.242       57.7423        59.242
